time (s)	strain (mm/mm)	stress (kPa)
-0.50000	-0.17444	1.6057
-0.46000	-0.17510	-0.0062297
-0.42000	-0.17510	0.34419
-0.38000	-0.17510	0.18066
-0.34000	-0.17478	-0.89396
-0.30000	-0.17510	-0.0062297
-0.27000	-0.17543	0.53108
-0.22000	-0.17543	-0.0062297
-0.18000	-0.17510	-0.19312
-0.14000	-0.17543	0.88150
-0.100000	-0.17478	0.69461
-0.060000	-0.17543	-0.19312
-0.020000	-0.17444	-0.54354
0.020000	-0.17510	-0.73043
0.050000	-0.17543	-0.19312
0.10000	-0.17510	-0.35665
0.14000	-0.17543	-0.0062297
0.18000	-0.17510	-0.19312
0.22000	-0.17543	-0.0062297
0.26000	-0.17444	-0.35665
0.30000	-0.17478	-0.19312
0.34000	-0.17478	0.18066
0.38000	-0.17510	-0.19312
0.42000	-0.17543	-0.19312
0.46000	-0.17510	-0.89396
0.50000	-0.17510	-0.73043
0.54000	-0.17412	-0.89396
0.58000	-0.17381	1.7692
0.62000	-0.17381	-0.73043
0.66000	-0.17412	0.88150
0.70000	-0.17444	-0.35665
0.74000	-0.17478	-0.0062297
0.78000	-0.17412	-1.0809
0.82000	-0.17412	-0.0062297
0.86000	-0.17381	-0.54354
0.90000	-0.17347	1.4188
0.94000	-0.17250	0.18066
0.98000	-0.17283	2.1430
1.0200	-0.17250	0.53108
1.0600	-0.17250	-2.3190
1.1000	-0.17121	0.34419
1.1400	-0.17153	-0.19312
1.1800	-0.17087	0.53108
1.2200	-0.17024	0.69461
1.2600	-0.16990	-0.89396
1.3000	-0.17055	1.9561
1.3400	-0.16925	0.18066
1.3800	-0.16925	-1.6182
1.4200	-0.16893	0.53108
1.4600	-0.16861	-0.35665
1.5000	-0.16828	1.4188
1.5400	-0.16861	-0.89396
1.5800	-0.16730	1.0684
1.6100	-0.16730	1.6057
1.6600	-0.16665	-1.7817
1.7000	-0.16730	0.88150
1.7400	-0.16601	-0.54354
1.7800	-0.16633	0.53108
1.8200	-0.16633	-0.19312
1.8600	-0.16568	-1.6182
1.9000	-0.16601	-0.0062297
1.9300	-0.16568	1.4188
1.9800	-0.16536	-0.54354
2.0200	-0.16536	1.0684
2.0600	-0.16439	-0.89396
2.1000	-0.16439	-0.19312
2.1400	-0.16405	-1.2444
2.1800	-0.16405	0.18066
2.2200	-0.16308	-0.73043
2.2600	-0.16243	0.69461
2.3000	-0.16308	-0.19312
2.3400	-0.16179	-1.7817
2.3800	-0.16211	-0.54354
2.4200	-0.16179	-0.35665
2.4600	-0.16211	-2.1555
2.5000	-0.16145	-0.19312
2.5400	-0.16048	-1.6182
2.5800	-0.16048	-0.19312
2.6200	-0.16048	1.0684
2.6600	-0.16016	-1.2444
2.7000	-0.16016	0.18066
2.7400	-0.15983	-0.35665
2.7800	-0.15951	0.34419
2.8200	-0.15854	0.18066
2.8600	-0.15854	-1.4313
2.9000	-0.15822	-0.73043
2.9400	-0.15789	-0.0062297
2.9800	-0.15757	-1.6182
3.0200	-0.15723	1.0684
3.0600	-0.15691	-1.0809
3.1000	-0.15626	0.18066
3.1400	-0.15626	-0.0062297
3.1800	-0.15561	-0.54354
3.2200	-0.15497	1.4188
3.2600	-0.15463	-0.54354
3.3000	-0.15463	0.53108
3.3400	-0.15400	0.88150
3.3800	-0.15334	-0.54354
3.4200	-0.15400	1.7692
3.4600	-0.15269	-0.19312
3.4900	-0.15301	-1.7817
3.5400	-0.15106	1.4188
3.5800	-0.15172	-1.2444
3.6200	-0.15106	1.9561
3.6600	-0.15075	0.69461
3.7000	-0.15009	-0.0062297
3.7400	-0.15009	1.0684
3.7800	-0.14944	-1.0809
3.8100	-0.14880	2.1430
3.8600	-0.14847	-1.4313
3.9000	-0.14847	0.69461
3.9400	-0.14815	1.0684
3.9800	-0.14749	0.34419
4.0200	-0.14718	0.34419
4.0600	-0.14684	0.34419
4.1000	-0.14587	-0.35665
4.1400	-0.14587	1.7692
4.1800	-0.14587	-0.89396
4.2200	-0.14522	0.53108
4.2600	-0.14490	-0.19312
4.3000	-0.14490	-1.0809
4.3400	-0.14458	1.0684
4.3800	-0.14458	-0.89396
4.4200	-0.14458	0.53108
4.4600	-0.14359	0.53108
4.5000	-0.14262	-1.7817
4.5400	-0.14295	0.69461
4.5800	-0.14198	-1.6182
4.6200	-0.14295	0.53108
4.6600	-0.14099	-0.19312
4.7000	-0.14165	-0.73043
4.7400	-0.14198	-0.19312
4.7800	-0.14067	-1.4313
4.8200	-0.14036	-1.2444
4.8600	-0.14036	0.18066
4.9000	-0.14067	0.34419
4.9400	-0.14036	-0.54354
4.9800	-0.14036	0.53108
5.0200	-0.14002	2.1430
5.0600	-0.13905	-0.89396
5.1000	-0.13873	-2.1555
5.1400	-0.13839	-0.0062297
5.1800	-0.13808	-1.2444
5.2200	-0.13808	-0.89396
5.2600	-0.13808	0.18066
5.3000	-0.13710	-1.4313
5.3400	-0.13742	0.88150
5.3700	-0.13710	-0.0062297
5.4200	-0.13645	-1.7817
5.4600	-0.13645	1.0684
5.5000	-0.13613	-0.54354
5.5400	-0.13613	-0.0062297
5.5800	-0.13482	-1.0809
5.6200	-0.13482	2.1430
5.6600	-0.13516	-0.35665
5.6900	-0.13451	-1.0809
5.7400	-0.13353	-0.0062297
5.7800	-0.13417	0.53108
5.8200	-0.13353	-1.4313
5.8600	-0.13353	0.88150
5.9000	-0.13223	-0.89396
5.9400	-0.13320	2.1430
5.9800	-0.13256	-0.89396
6.0200	-0.13223	-1.2444
6.0600	-0.13191	0.69461
6.1000	-0.13028	-0.19312
6.1400	-0.13094	-0.0062297
6.1800	-0.13060	0.88150
6.2200	-0.13028	0.53108
6.2600	-0.12898	-0.54354
6.3000	-0.12898	-1.0809
6.3400	-0.12898	-0.35665
6.3800	-0.12931	2.1430
6.4200	-0.12931	-1.2444
6.4600	-0.12769	1.6057
6.5000	-0.12800	-1.4313
6.5400	-0.12671	-0.19312
6.5800	-0.12737	-0.89396
6.6200	-0.12606	-0.54354
6.6600	-0.12638	1.0684
6.7000	-0.12671	0.34419
6.7400	-0.12541	-0.19312
6.7800	-0.12541	1.6057
6.8200	-0.12378	-0.73043
6.8600	-0.12412	2.1430
6.9000	-0.12281	-1.9686
6.9400	-0.12249	1.6057
6.9800	-0.12216	2.1430
7.0200	-0.12184	-0.19312
7.0600	-0.12184	1.0684
7.1000	-0.12118	-1.2444
7.1400	-0.12086	0.53108
7.1800	-0.12055	-0.54354
7.2200	-0.11989	-1.0809
7.2500	-0.11956	-0.35665
7.3100	-0.12118	0.53108
7.3400	-0.11924	-0.73043
7.3800	-0.11956	1.6057
7.4200	-0.11761	0.34419
7.4600	-0.11827	0.88150
7.5000	-0.11859	-0.73043
7.5400	-0.11795	-0.0062297
7.5700	-0.11696	1.2319
7.6200	-0.11632	-0.89396
7.6600	-0.11599	-0.19312
7.7000	-0.11632	-0.35665
7.7400	-0.11567	0.53108
7.7800	-0.11599	1.0684
7.8200	-0.11567	-1.0809
7.8600	-0.11535	2.4934
7.9100	-0.11470	1.2319
7.9400	-0.11404	-1.9686
7.9800	-0.11436	0.69461
8.0200	-0.11404	-0.54354
8.0600	-0.11373	1.4188
8.1000	-0.11339	-0.19312
8.1400	-0.11339	0.53108
8.1800	-0.11339	1.2319
8.2200	-0.11274	-0.73043
8.2600	-0.11242	-0.54354
8.3000	-0.11307	0.34419
8.3400	-0.11113	-0.19312
8.3800	-0.11210	2.6570
8.4200	-0.11145	-0.89396
8.4600	-0.11113	1.9561
8.5000	-0.11047	-0.54354
8.5400	-0.11047	-0.89396
8.5800	-0.11079	0.18066
8.6200	-0.10917	-0.0062297
8.6600	-0.10982	0.53108
8.7000	-0.10950	1.0684
8.7400	-0.10982	-0.35665
8.7800	-0.10917	1.9561
8.8200	-0.10853	-1.4313
8.8600	-0.10853	-0.0062297
8.9000	-0.10788	0.88150
8.9400	-0.10788	-1.0809
8.9800	-0.10754	1.7692
9.0200	-0.10690	-0.54354
9.0600	-0.10722	0.88150
9.1000	-0.10625	1.9561
9.1300	-0.10593	0.69461
9.1800	-0.10593	0.69461
9.2200	-0.10494	-1.6182
9.2600	-0.10494	0.69461
9.3000	-0.10431	0.18066
9.3400	-0.10431	-1.4313
9.3800	-0.10334	0.53108
9.4200	-0.10334	-1.4313
9.4500	-0.10300	1.2319
9.5000	-0.10300	-0.0062297
9.5400	-0.10300	-1.0809
9.5800	-0.10203	0.18066
9.6200	-0.10106	-0.54354
9.6600	-0.10072	-1.2444
9.7000	-0.10137	0.69461
9.7400	-0.10008	-1.4313
9.7700	-0.099749	0.53108
9.8200	-0.099430	-0.35665
9.8600	-0.099112	-0.35665
9.9000	-0.098123	-0.19312
9.9400	-0.097805	-1.4313
9.9800	-0.097151	0.34419
10.020	-0.097486	1.0684
10.060	-0.096833	-1.2444
10.100	-0.096833	1.0684
10.140	-0.096179	-0.73043
10.180	-0.095861	-0.54354
10.220	-0.095207	1.0684
10.260	-0.093917	-1.7817
10.300	-0.094553	1.6057
10.340	-0.093917	-1.2444
10.380	-0.093917	1.7692
10.420	-0.092928	-0.0062297
10.460	-0.092928	0.34419
10.500	-0.093263	1.2319
10.540	-0.092291	0.69461
10.580	-0.092609	-0.0062297
10.620	-0.091637	0.69461
10.660	-0.092291	-0.54354
10.700	-0.091319	-0.19312
10.740	-0.091319	0.18066
10.780	-0.090330	0.34419
10.820	-0.089693	1.9561
10.860	-0.090012	-0.89396
10.900	-0.090012	2.1430
10.940	-0.089693	-0.35665
10.980	-0.090012	0.34419
11.010	-0.089358	0.34419
11.060	-0.088705	0.53108
11.100	-0.088705	0.18066
11.140	-0.088386	0.88150
11.180	-0.088386	0.18066
11.220	-0.087733	2.1430
11.260	-0.087096	-0.19312
11.300	-0.087096	0.18066
11.330	-0.087096	1.2319
11.380	-0.086761	-0.0062297
11.420	-0.085470	1.4188
11.460	-0.085470	-0.35665
11.500	-0.085470	1.9561
11.540	-0.085135	0.88150
11.580	-0.085470	-0.19312
11.620	-0.085135	-0.19312
11.650	-0.084498	-0.0062297
11.700	-0.084163	-0.0062297
11.740	-0.083844	1.2319
11.780	-0.083509	-0.89396
11.820	-0.083509	2.3065
11.860	-0.082872	-1.6182
11.900	-0.082872	2.1430
11.940	-0.082537	-1.6182
11.980	-0.082872	-0.73043
12.020	-0.081565	0.53108
12.060	-0.080912	-0.0062297
12.100	-0.081565	-0.35665
12.140	-0.081565	1.0684
12.180	-0.080593	2.3065
12.220	-0.079940	0.69461
12.260	-0.079940	0.34419
12.300	-0.079286	-0.35665
12.340	-0.079286	-0.0062297
12.380	-0.078649	-0.73043
12.420	-0.078314	0.18066
12.460	-0.077677	-0.19312
12.500	-0.077342	0.69461
12.540	-0.076370	0.69461
12.580	-0.076370	1.4188
12.620	-0.075716	0.88150
12.660	-0.075716	0.18066
12.700	-0.075398	-0.89396
12.740	-0.074426	0.53108
12.780	-0.074426	0.18066
12.820	-0.073772	1.7692
12.860	-0.073119	-0.0062297
12.900	-0.073119	1.7692
12.940	-0.073119	1.0684
12.980	-0.072800	-1.2444
13.020	-0.072482	-0.35665
13.060	-0.071493	1.0684
13.100	-0.071493	1.7692
13.140	-0.070856	-0.0062297
13.180	-0.070203	0.69461
13.210	-0.070203	0.34419
13.260	-0.070203	0.88150
13.300	-0.069884	-1.2444
13.340	-0.069231	1.7692
13.380	-0.068896	0.34419
13.420	-0.068259	0.88150
13.460	-0.067924	-0.54354
13.500	-0.067270	0.18066
13.530	-0.067924	2.4934
13.580	-0.066952	-0.0062297
13.620	-0.065980	1.0684
13.660	-0.065661	-0.73043
13.700	-0.065980	0.18066
13.740	-0.065980	-0.73043
13.780	-0.065008	-0.35665
13.820	-0.064672	0.53108
13.860	-0.064354	2.4934
13.900	-0.064672	-1.0809
13.940	-0.063700	2.1430
13.980	-0.063382	-1.9686
14.020	-0.063382	1.2319
14.060	-0.064036	-2.3190
14.100	-0.063064	0.34419
14.140	-0.062410	0.53108
14.180	-0.061756	1.9561
14.220	-0.062075	-0.73043
14.260	-0.062728	-0.54354
14.300	-0.062075	-1.0809
14.340	-0.061103	-0.35665
14.380	-0.060466	-0.73043
14.420	-0.061103	0.69461
14.460	-0.060131	-1.2444
14.500	-0.059812	0.18066
14.540	-0.059812	0.18066
14.580	-0.060131	-1.6182
14.620	-0.059159	-0.54354
14.660	-0.059477	0.69461
14.700	-0.058840	-0.0062297
14.740	-0.058187	0.53108
14.780	-0.058505	-0.73043
14.820	-0.057533	-1.6182
14.860	-0.057868	0.53108
14.900	-0.057868	-1.6182
14.940	-0.056880	2.1430
14.980	-0.057215	-0.35665
15.020	-0.056561	1.2319
15.060	-0.056561	0.69461
15.090	-0.056243	-1.0809
15.140	-0.055254	1.2319
15.180	-0.055907	1.4188
15.220	-0.054617	-0.89396
15.260	-0.054617	1.7692
15.300	-0.054282	-0.19312
15.340	-0.053645	2.6570
15.380	-0.053963	0.18066
15.410	-0.052991	-1.4313
15.460	-0.052991	1.0684
15.500	-0.052019	0.69461
15.540	-0.052656	2.4934
15.580	-0.052019	0.69461
15.620	-0.051366	0.88150
15.660	-0.051366	1.2319
15.700	-0.050712	0.69461
15.740	-0.049422	-0.35665
15.780	-0.049087	2.1430
15.820	-0.049087	-0.19312
15.860	-0.048450	2.1430
15.900	-0.047796	-0.73043
15.940	-0.048115	1.9561
15.980	-0.047461	1.2319
16.020	-0.047143	-0.0062297
16.060	-0.046489	2.6570
16.100	-0.046489	-1.0809
16.140	-0.046489	1.2319
16.180	-0.045199	0.34419
16.220	-0.045835	-0.0062297
16.260	-0.044545	0.88150
16.300	-0.044227	-0.35665
16.340	-0.044227	0.88150
16.380	-0.043238	0.53108
16.420	-0.042601	-1.6182
16.460	-0.042919	1.6057
16.500	-0.042266	-1.6182
16.540	-0.042266	1.0684
16.580	-0.041629	0.53108
16.620	-0.040975	-0.73043
16.660	-0.041294	0.88150
16.700	-0.040640	-0.73043
16.740	-0.040322	0.53108
16.780	-0.040003	0.34419
16.820	-0.040003	-1.6182
16.860	-0.039350	1.2319
16.900	-0.039350	-0.73043
16.940	-0.039350	1.4188
16.970	-0.038696	-0.0062297
17.020	-0.038043	-0.19312
17.060	-0.038043	-0.19312
17.100	-0.037071	-1.0809
17.140	-0.037406	-0.19312
17.180	-0.037071	1.0684
17.220	-0.037406	-1.4313
17.260	-0.036752	1.2319
17.300	-0.037071	1.0684
17.340	-0.035780	-0.73043
17.380	-0.035780	0.53108
17.420	-0.035780	-1.0809
17.460	-0.035127	0.69461
17.500	-0.035445	-0.35665
17.540	-0.035127	-0.0062297
17.580	-0.035127	1.0684
17.620	-0.034155	-0.19312
17.660	-0.033819	0.53108
17.700	-0.033819	0.69461
17.740	-0.032847	-1.4313
17.780	-0.033183	2.1430
17.820	-0.032847	-0.35665
17.860	-0.032847	1.2319
17.900	-0.032529	-1.0809
17.940	-0.031875	-0.54354
17.980	-0.031557	1.9561
18.020	-0.030903	-0.19312
18.060	-0.031222	1.7692
18.100	-0.031222	1.0684
18.140	-0.028959	1.4188
18.180	-0.030250	0.34419
18.220	-0.029613	-0.73043
18.260	-0.030250	1.0684
18.300	-0.028959	1.7692
18.340	-0.028624	0.34419
18.380	-0.028624	1.4188
18.420	-0.027987	1.0684
18.460	-0.027987	0.69461
18.500	-0.027334	0.53108
18.540	-0.027015	0.69461
18.580	-0.026680	1.7692
18.620	-0.026026	-0.19312
18.660	-0.026362	-0.19312
18.700	-0.025390	1.9561
18.740	-0.024082	-1.4313
18.780	-0.023764	1.2319
18.820	-0.023764	-0.54354
18.850	-0.024082	0.34419
18.900	-0.024401	1.4188
18.940	-0.023110	-0.0062297
18.980	-0.022792	1.0684
19.020	-0.022792	-0.73043
19.060	-0.021803	0.69461
19.100	-0.021166	-0.0062297
19.140	-0.020513	-0.35665
19.170	-0.020194	0.69461
19.220	-0.020831	0.69461
19.260	-0.020513	-0.73043
19.300	-0.020194	1.9561
19.340	-0.020194	0.53108
19.380	-0.018569	1.4188
19.420	-0.018234	0.34419
19.460	-0.017262	0.88150
19.500	-0.017597	-0.0062297
19.540	-0.017262	-0.35665
19.580	-0.016943	-0.54354
19.620	-0.015971	-0.54354
19.660	-0.015971	1.7692
19.700	-0.015318	1.7692
19.740	-0.015318	1.0684
19.780	-0.014999	2.4934
19.820	-0.014346	0.88150
19.860	-0.014010	-1.6182
19.900	-0.014346	0.53108
19.950	-0.014346	-0.54354
19.980	-0.013038	2.6570
20.020	-0.013038	0.88150
20.060	-0.013374	0.53108
20.100	-0.012385	2.4934
20.140	-0.012066	0.34419
20.180	-0.012066	-0.35665
20.220	-0.012066	0.18066
20.260	-0.011094	1.0684
20.300	-0.011094	1.4188
20.340	-0.010776	0.53108
20.380	-0.010776	1.7692
20.420	-0.0097872	1.6057
20.460	-0.0094687	0.69461
20.500	-0.0091503	-0.73043
20.550	-0.0084967	2.6570
20.580	-0.0091503	0.69461
20.620	-0.0091503	0.69461
20.660	-0.0088151	0.69461
20.700	-0.0088151	1.6057
20.730	-0.0084967	0.69461
20.780	-0.0071895	-0.0062297
20.820	-0.0078431	0.53108
20.860	-0.0071895	-0.54354
20.900	-0.0075247	0.88150
20.940	-0.0071895	1.6057
20.980	-0.0068711	1.2319
21.020	-0.0065527	1.0684
21.050	-0.0058991	1.0684
21.100	-0.0055807	0.69461
21.140	-0.0055807	1.6057
21.180	-0.0052455	0.88150
21.220	-0.0049271	0.88150
21.260	-0.0042735	-0.73043
21.300	-0.0042735	1.0684
21.340	-0.0039551	-0.73043
21.370	-0.0042735	-0.19312
21.420	-0.0036199	0.18066
21.460	-0.0029831	-0.89396
21.500	-0.0029831	0.88150
21.540	-0.0023295	2.1430
21.580	-0.0013575	0.34419
21.620	-0.00070387	0.69461
21.660	-0.0010223	-0.19312
21.700	-0.0010223	1.4188
21.740	0.00026814	1.4188
21.780	-0.00036869	-0.73043
21.820	0.00060332	1.0684
21.860	0.0012402	-0.19312
21.900	0.0015753	1.2319
21.940	0.0018937	0.88150
21.980	0.0022289	-0.19312
22.020	0.0035194	1.6057
22.060	0.0032009	0.18066
22.100	0.0028658	0.18066
22.140	0.0041730	1.0684
22.180	0.0054634	0.69461
22.220	0.0054634	1.9561
22.260	0.0051450	0.69461
22.300	0.0067706	2.6570
22.340	0.0057986	2.1430
22.380	0.0070890	1.6057
22.420	0.0067706	1.4188
22.460	0.0070890	1.7692
22.500	0.0077426	1.0684
22.540	0.0080610	2.6570
22.580	0.0087146	0.88150
22.610	0.0093682	2.3065
22.660	0.0093682	1.4188
22.700	0.0093682	1.4188
22.740	0.010022	3.0307
22.780	0.010659	0.69461
22.820	0.010659	2.4934
22.860	0.010994	1.9561
22.900	0.011312	1.7692
22.930	0.011312	2.4934
22.980	0.011647	1.2319
23.020	0.012619	2.8439
23.060	0.012619	2.3065
23.100	0.012619	1.6057
23.140	0.012938	2.3065
23.180	0.013591	1.9561
23.220	0.013256	1.7692
23.260	0.013256	1.7692
23.300	0.013910	1.2319
23.340	0.014563	3.0307
23.380	0.014882	0.88150
23.420	0.014882	1.9561
23.460	0.015217	2.3065
23.500	0.015535	1.9561
23.540	0.015535	1.2319
23.580	0.015854	2.1430
23.620	0.016507	0.53108
23.660	0.016843	2.8439
23.700	0.016843	0.69461
23.740	0.017479	1.9561
23.780	0.017479	1.4188
23.820	0.017161	2.6570
23.860	0.017479	2.4934
23.900	0.018133	1.0684
23.940	0.019440	3.1943
23.980	0.018787	0.88150
24.020	0.019105	1.2319
24.060	0.019105	2.3065
24.100	0.020077	3.3812
24.140	0.020077	3.1943
24.180	0.020412	1.6057
24.220	0.020731	-0.0062297
24.260	0.021066	3.9185
24.300	0.021384	0.69461
24.340	0.021703	2.1430
24.380	0.021384	1.7692
24.420	0.022038	3.5681
24.460	0.022675	3.7316
24.490	0.023010	1.4188
24.540	0.023328	2.3065
24.580	0.023663	2.1430
24.620	0.024300	1.9561
24.660	0.023982	3.5681
24.700	0.024954	3.0307
24.740	0.025272	4.0820
24.780	0.025926	3.1943
24.810	0.026261	1.4188
24.860	0.026580	3.3812
24.900	0.026580	1.7692
24.940	0.026580	4.0820
24.980	0.027233	2.6570
25.020	0.027870	3.3812
25.060	0.028205	3.3812
25.100	0.028859	1.4188
25.130	0.028859	3.3812
25.180	0.029496	3.0307
25.220	0.029831	3.9185
25.260	0.030468	4.2689
25.300	0.030803	2.3065
25.340	0.031775	4.6193
25.380	0.032093	1.9561
25.420	0.033082	3.9185
25.460	0.032747	6.4181
25.500	0.032747	3.5681
25.540	0.033719	4.8062
25.580	0.033719	3.0307
25.620	0.033719	3.1943
25.660	0.034054	4.4558
25.700	0.035680	2.4934
25.740	0.035680	4.4558
25.780	0.035344	5.5070
25.820	0.035344	4.4558
25.860	0.035998	6.0444
25.900	0.036316	3.9185
25.940	0.037288	4.0820
25.980	0.037288	3.7316
26.020	0.036970	3.5681
26.060	0.037942	5.3435
26.100	0.038277	5.6939
26.140	0.038596	5.1566
26.180	0.037624	4.8062
26.220	0.039249	4.9931
26.260	0.038914	5.6939
26.300	0.039568	4.8062
26.340	0.039568	5.3435
26.380	0.039568	5.6939
26.420	0.040875	5.5070
26.460	0.040221	7.4694
26.500	0.040540	3.5681
26.540	0.041512	6.7686
26.580	0.041193	5.3435
26.620	0.041512	6.2312
26.660	0.041512	7.3059
26.690	0.041847	7.6563
26.740	0.043472	5.8808
26.780	0.042500	6.9555
26.820	0.043472	5.8808
26.860	0.043472	8.0067
26.900	0.043137	7.6563
26.940	0.044444	7.6563
26.980	0.044444	8.5440
27.010	0.044444	6.2312
27.060	0.044444	8.8944
27.100	0.045098	8.1936
27.140	0.045416	8.0067
27.180	0.045416	5.8808
27.220	0.045735	8.7309
27.260	0.046070	7.8432
27.300	0.047042	8.8944
27.340	0.047042	7.1190
27.380	0.046070	9.8055
27.420	0.047042	8.5440
27.460	0.048014	10.319
27.500	0.048014	10.506
27.540	0.048332	8.8944
27.580	0.048668	10.857
27.620	0.049305	9.0813
27.660	0.048986	10.693
27.700	0.049958	9.6186
27.740	0.049958	10.319
27.780	0.050612	10.857
27.820	0.050612	10.693
27.860	0.051584	8.8944
27.900	0.051584	11.231
27.940	0.051902	9.9691
27.980	0.052891	12.282
28.020	0.052556	9.9691
28.060	0.052891	12.118
28.100	0.054181	11.231
28.140	0.054181	11.394
28.180	0.054835	12.282
28.220	0.055153	11.394
28.260	0.055489	13.543
28.300	0.056125	12.656
28.340	0.056779	11.931
28.380	0.056461	13.356
28.420	0.056779	12.656
28.460	0.057751	12.656
28.500	0.058086	14.244
28.540	0.058723	16.043
28.570	0.058723	13.543
28.620	0.059377	13.356
28.660	0.059377	13.543
28.700	0.059712	14.968
28.740	0.061002	13.356
28.780	0.060030	15.319
28.820	0.061002	13.356
28.860	0.061321	16.744
28.890	0.061974	14.968
28.940	0.062309	14.968
28.980	0.062628	15.319
29.020	0.062946	16.207
29.060	0.062946	15.319
29.100	0.062628	16.744
29.140	0.063281	18.005
29.180	0.062946	17.468
29.220	0.064253	17.094
29.260	0.064572	17.632
29.300	0.065225	18.893
29.340	0.065225	16.744
29.380	0.065225	19.057
29.420	0.064907	18.356
29.460	0.065225	20.318
29.500	0.066197	19.781
29.540	0.066851	19.430
29.580	0.066533	20.855
29.620	0.067169	21.369
29.660	0.067169	20.318
29.700	0.067823	22.631
29.740	0.068141	20.855
29.780	0.067505	21.369
29.820	0.068477	21.206
29.860	0.068141	22.280
29.900	0.068795	22.631
29.940	0.069449	22.631
29.980	0.069130	23.519
30.020	0.069449	24.406
30.060	0.069767	24.056
30.100	0.070421	23.332
30.140	0.070102	24.243
30.180	0.070421	23.332
30.220	0.071393	26.906
30.260	0.071728	24.757
30.300	0.071393	26.719
30.340	0.071728	25.668
30.380	0.072365	26.369
30.420	0.072365	26.369
30.450	0.072700	27.093
30.500	0.073018	28.144
30.540	0.072700	27.443
30.580	0.073990	28.682
30.620	0.074325	29.219
30.660	0.074644	27.794
30.700	0.075297	29.219
30.740	0.075297	28.868
30.780	0.077241	29.569
30.820	0.076269	30.293
