time (s)	strain (mm/mm)	stress (kPa)
0.0000	-0.20879	-1.9760
0.040000	-0.20828	-1.0493
0.080000	-0.20725	-1.6811
0.12000	-0.20828	-1.6811
0.16000	-0.20828	-2.6499
0.20000	-0.20725	-2.3129
0.24000	-0.20828	0.25647
0.28000	-0.20828	0.88829
0.32000	-0.20828	-1.6811
0.36000	-0.20828	-0.080498
0.40000	-0.20828	-1.3441
0.44000	-0.20879	-1.0493
0.48000	-0.20775	1.5622
0.52000	-0.20932	-1.0493
0.56000	-0.20775	1.5622
0.60000	-0.20879	0.25647
0.64000	-0.20879	-2.3129
0.68000	-0.20828	-0.080498
0.72000	-0.20879	0.59344
0.76000	-0.20775	-1.6811
0.80000	-0.20879	0.59344
0.84000	-0.20982	0.59344
0.88000	-0.20879	0.59344
0.92000	-0.20879	1.8571
0.96000	-0.20932	0.59344
1.0000	-0.20982	0.88829
1.0400	-0.20982	1.5622
1.0800	-0.20982	-0.37535
1.1200	-0.20982	0.25647
1.1600	-0.21033	1.2253
1.2000	-0.20879	-0.37535
1.2400	-0.21033	3.7947
1.2800	-0.20932	-1.9760
1.3200	-0.20828	3.4577
1.3600	-0.20828	-1.3441
1.4000	-0.20828	0.88829
1.4400	-0.20674	0.88829
1.4800	-0.20621	-0.37535
1.5200	-0.20725	2.8259
1.5600	-0.20571	-0.37535
1.6000	-0.20674	-0.080498
1.6400	-0.20674	2.1940
1.6800	-0.20364	-3.6187
1.7200	-0.20571	2.1940
1.7600	-0.20314	-0.37535
1.8000	-0.20364	-0.080498
1.8400	-0.20210	0.59344
1.8800	-0.20160	1.5622
1.9200	-0.20109	-0.71232
1.9600	-0.20056	0.88829
2.0000	-0.20056	-1.0493
2.0400	-0.20006	1.8571
2.0800	-0.19645	-1.9760
2.1200	-0.19799	-1.0493
2.1600	-0.19852	0.25647
2.2000	-0.19799	-1.9760
2.2400	-0.19595	1.8571
2.2800	-0.19698	-1.6811
2.3200	-0.19542	-1.3441
2.3600	-0.19287	-1.0493
2.4000	-0.19337	1.5622
2.4400	-0.19441	-0.37535
2.4800	-0.19287	-2.6499
2.5200	-0.19183	-0.080498
2.5600	-0.19183	1.8571
2.6000	-0.19080	-2.6499
2.6400	-0.19080	0.88829
2.6800	-0.18926	0.88829
2.7200	-0.18873	2.8259
2.7600	-0.18873	0.88829
2.8000	-0.18719	-2.9447
2.8400	-0.18669	0.88829
2.8800	-0.18669	-2.9447
2.9200	-0.18669	-0.080498
2.9600	-0.18515	-1.0493
3.0000	-0.18411	0.88829
3.0400	-0.18462	0.88829
3.0800	-0.18258	0.59344
3.1200	-0.18361	-2.9447
3.1600	-0.18154	0.25647
3.2000	-0.18207	-3.9135
3.2400	-0.18051	-0.37535
3.2800	-0.18000	1.2253
3.3200	-0.18000	2.1940
3.3600	-0.17950	0.88829
3.4000	-0.17950	-0.71232
3.4400	-0.17846	-0.080498
3.4800	-0.17743	0.59344
3.5200	-0.17743	-1.0493
3.5600	-0.17796	1.2253
3.6000	-0.17692	-0.37535
3.6400	-0.17639	1.5622
3.6800	-0.17539	-1.0493
3.7200	-0.17589	-1.9760
3.7600	-0.17435	3.1628
3.8000	-0.17435	-1.0493
3.8400	-0.17382	0.59344
3.8800	-0.17382	-1.3441
3.9200	-0.17382	0.59344
3.9600	-0.17332	-1.9760
4.0000	-0.17127	0.88829
4.0400	-0.17178	-0.080498
4.0800	-0.17074	2.4889
4.1200	-0.17127	-2.3129
4.1600	-0.17074	3.7947
4.2000	-0.17074	-1.3441
4.2400	-0.16971	-0.37535
4.2800	-0.16971	-1.0493
4.3200	-0.16817	0.59344
4.3600	-0.16817	0.59344
4.4000	-0.16817	0.59344
4.4400	-0.16716	-0.080498
4.4800	-0.16716	-1.6811
4.5200	-0.16716	-0.37535
4.5600	-0.16560	-1.3441
4.6000	-0.16663	-1.6811
4.6400	-0.16509	-0.37535
4.6800	-0.16509	2.8259
4.7200	-0.16355	-1.0493
4.7600	-0.16305	0.88829
4.8000	-0.16355	-0.37535
4.8400	-0.16252	0.88829
4.8800	-0.16252	-1.0493
4.9200	-0.16098	-0.37535
4.9600	-0.16098	2.1940
5.0000	-0.15995	0.88829
5.0400	-0.16048	-0.37535
5.0800	-0.15894	-1.9760
5.1200	-0.15894	-0.71232
5.1600	-0.15790	1.5622
5.2000	-0.15737	-0.080498
5.2400	-0.15687	0.59344
5.2800	-0.15533	-1.3441
5.3200	-0.15533	-1.0493
5.3600	-0.15480	2.4889
5.4000	-0.15379	-1.3441
5.4400	-0.15480	0.88829
5.4800	-0.15172	1.8571
5.5200	-0.15225	1.5622
5.5600	-0.15018	2.4889
5.6000	-0.15122	0.59344
5.6400	-0.15225	-3.2817
5.6800	-0.14864	1.5622
5.7200	-0.14915	0.25647
5.7600	-0.14864	3.1628
5.8000	-0.14814	0.59344
5.8400	-0.14761	1.5622
5.8800	-0.14711	-1.3441
5.9200	-0.14658	-1.6811
5.9600	-0.14557	-1.6811
6.0000	-0.14504	0.59344
6.0400	-0.14403	0.59344
6.0800	-0.14350	0.25647
6.1200	-0.14299	-1.3441
6.1600	-0.14246	2.1940
6.2000	-0.14145	2.1940
6.2400	-0.14145	-1.0493
6.2800	-0.14145	2.4889
6.3200	-0.13939	0.25647
6.3600	-0.13888	0.25647
6.4000	-0.13888	0.25647
6.4400	-0.13939	-0.37535
6.4800	-0.14092	-2.3129
6.5200	-0.13835	3.1628
6.5600	-0.13681	-2.9447
6.6000	-0.13734	-1.0493
6.6400	-0.13734	-1.0493
6.6800	-0.13527	0.88829
6.7200	-0.13631	-0.37535
6.7600	-0.13477	0.25647
6.8000	-0.13424	0.88829
6.8400	-0.13323	-0.37535
6.8800	-0.13424	0.25647
6.9200	-0.13373	-1.0493
6.9600	-0.13323	-2.3129
7.0000	-0.13220	-0.37535
7.0400	-0.13220	-3.9135
7.0800	-0.13066	2.1940
7.1200	-0.13220	-3.2817
7.1600	-0.13066	-0.71232
7.2000	-0.13013	1.2253
7.2400	-0.13013	-1.9760
7.2800	-0.13066	0.25647
7.3200	-0.12859	-2.3129
7.3600	-0.12912	-1.6811
7.4000	-0.12808	-0.080498
7.4400	-0.12705	-1.6811
7.4800	-0.12705	-0.080498
7.5200	-0.12601	-1.3441
7.5600	-0.12705	-2.3129
7.6000	-0.12551	0.25647
7.6400	-0.12551	-1.0493
7.6900	-0.12294	0.59344
7.7200	-0.12448	0.59344
7.7600	-0.12397	-1.9760
7.8000	-0.12344	0.59344
7.8400	-0.12294	-2.6499
7.8800	-0.12140	2.4889
7.9200	-0.12243	-0.37535
7.9600	-0.12140	1.2253
8.0000	-0.12036	0.25647
8.0400	-0.11933	-0.71232
8.0800	-0.11933	1.5622
8.1200	-0.11883	1.5622
8.1600	-0.11832	1.2253
8.2000	-0.11779	3.4577
8.2400	-0.11779	-0.080498
8.2900	-0.11625	-1.9760
8.3200	-0.11575	1.5622
8.3600	-0.11471	0.59344
8.4000	-0.11471	2.4889
8.4400	-0.11421	0.25647
8.4800	-0.11317	1.5622
8.5200	-0.11164	0.59344
8.5600	-0.11164	1.2253
8.6000	-0.11164	0.88829
8.6400	-0.11010	-1.3441
8.6800	-0.10853	0.88829
8.7200	-0.10906	2.4889
8.7600	-0.10803	0.88829
8.8000	-0.10699	1.5622
8.8400	-0.10803	2.4889
8.8800	-0.10699	1.5622
8.9200	-0.10599	2.1940
8.9600	-0.10442	-0.71232
9.0000	-0.10442	0.59344
9.0400	-0.10442	0.88829
9.0800	-0.10442	-1.0493
9.1200	-0.10288	2.8259
9.1600	-0.10238	1.5622
9.2000	-0.10185	-0.080498
9.2400	-0.10238	-1.6811
9.2800	-0.10084	2.1940
9.3200	-0.10134	-0.37535
9.3600	-0.099300	-1.3441
9.4000	-0.099804	0.88829
9.4400	-0.099300	0.59344
9.4800	-0.097734	0.25647
9.5200	-0.098265	0.59344
9.5600	-0.097734	0.25647
9.6000	-0.098769	4.1316
9.6400	-0.096196	0.59344
9.6800	-0.096196	-0.71232
9.7200	-0.095692	1.2253
9.7600	-0.094657	-1.3441
9.8000	-0.094657	0.25647
9.8400	-0.095692	0.59344
9.8800	-0.095188	1.5622
9.9200	-0.095188	1.8571
9.9600	-0.093622	-1.0493
10.000	-0.092084	-1.6811
10.040	-0.093118	-0.080498
10.080	-0.092614	-1.0493
10.120	-0.092614	-0.37535
10.160	-0.092084	-0.080498
10.200	-0.091076	2.4889
10.240	-0.091076	-0.080498
10.280	-0.090041	-1.9760
10.320	-0.089006	0.59344
10.360	-0.089006	-1.0493
10.400	-0.087972	-2.6499
10.440	-0.089006	-0.37535
10.480	-0.086937	1.2253
10.520	-0.087972	3.4577
10.560	-0.086937	-0.71232
10.600	-0.086433	-1.6811
10.640	-0.086937	0.59344
10.680	-0.083860	0.25647
10.720	-0.084894	-1.0493
10.760	-0.084390	-0.71232
10.800	-0.083355	2.4889
10.840	-0.082825	2.4889
10.880	-0.082321	-0.71232
10.920	-0.082321	1.2253
10.960	-0.081286	1.5622
11.000	-0.080782	-1.0493
11.040	-0.080782	0.25647
11.080	-0.078209	0.25647
11.120	-0.079243	2.8259
11.160	-0.078209	-1.3441
11.200	-0.077705	-0.37535
11.240	-0.077705	3.1628
11.280	-0.076166	-0.37535
11.320	-0.075635	1.8571
11.360	-0.073593	-0.71232
11.400	-0.075131	-0.71232
11.440	-0.073062	1.5622
11.480	-0.072558	-1.3441
11.520	-0.072558	1.2253
11.560	-0.071019	2.4889
11.600	-0.071523	0.59344
11.640	-0.070489	-0.37535
11.680	-0.068950	-1.6811
11.720	-0.067915	1.8571
11.760	-0.067411	-1.0493
11.800	-0.066907	-0.71232
11.840	-0.067411	1.8571
11.880	-0.066907	1.8571
11.920	-0.065368	0.88829
11.960	-0.065368	-2.3129
12.000	-0.062795	0.59344
12.040	-0.064334	1.2253
12.080	-0.063803	-1.6811
12.120	-0.062265	0.25647
12.160	-0.062265	2.8259
12.200	-0.061760	-0.71232
12.240	-0.060726	-0.080498
12.280	-0.060222	0.59344
12.320	-0.061760	0.25647
12.360	-0.060222	0.88829
12.400	-0.059187	-2.3129
12.440	-0.058683	3.4577
12.480	-0.058152	-0.37535
12.520	-0.058683	-1.6811
12.560	-0.057144	0.59344
12.600	-0.057648	-0.37535
12.640	-0.056614	2.1940
12.680	-0.056110	-0.080498
12.720	-0.056110	1.2253
12.760	-0.056110	2.4889
12.800	-0.054571	-1.3441
12.840	-0.054040	1.8571
12.880	-0.054571	0.88829
12.920	-0.053536	1.5622
12.960	-0.053032	3.1628
13.000	-0.051998	1.5622
13.040	-0.053536	1.2253
13.080	-0.052502	1.5622
13.120	-0.050963	1.5622
13.160	-0.049928	2.8259
13.200	-0.050459	0.88829
13.240	-0.050963	2.8259
13.280	-0.049424	2.4889
13.320	-0.049928	0.88829
13.360	-0.047886	2.4889
13.400	-0.048390	-0.37535
13.440	-0.047886	0.88829
13.480	-0.046851	-0.080498
13.520	-0.047355	0.88829
13.560	-0.046347	1.8571
13.600	-0.046851	-0.080498
13.640	-0.045816	1.8571
13.680	-0.044782	1.8571
13.720	-0.044278	-0.080498
13.760	-0.044278	2.1940
13.800	-0.043243	-0.71232
13.840	-0.043774	0.25647
13.880	-0.042235	-0.080498
13.920	-0.041704	0.25647
13.960	-0.041704	1.5622
14.000	-0.040166	-0.37535
14.040	-0.040166	-0.37535
14.080	-0.040166	1.5622
14.120	-0.038123	-1.0493
14.160	-0.037592	0.88829
14.200	-0.038123	-0.71232
14.240	-0.037592	-0.37535
14.280	-0.036053	0.59344
14.320	-0.035019	2.4889
14.360	-0.036053	0.88829
14.400	-0.034515	-0.080498
14.440	-0.032976	-1.3441
14.480	-0.032445	2.1940
14.520	-0.032445	-2.3129
14.560	-0.031941	0.88829
14.600	-0.030907	2.8259
14.640	-0.031437	1.8571
14.680	-0.029872	1.2253
14.720	-0.028864	0.25647
14.760	-0.029368	-1.0493
14.800	-0.027829	0.25647
14.840	-0.027325	-2.6499
14.880	-0.026291	2.4889
14.920	-0.025760	3.1628
14.960	-0.025256	2.4889
15.000	-0.024221	1.5622
15.040	-0.024221	-0.71232
15.080	-0.023717	1.5622
15.120	-0.023717	-0.080498
15.160	-0.021648	-0.080498
15.200	-0.022683	-0.080498
15.240	-0.021648	1.5622
15.280	-0.021648	-0.37535
15.320	-0.020640	0.59344
15.360	-0.020640	2.4889
15.400	-0.019605	2.1940
15.440	-0.019605	-0.71232
15.480	-0.019605	2.8259
15.520	-0.018571	-2.3129
15.560	-0.018067	1.5622
15.600	-0.018067	1.8571
15.640	-0.017536	0.88829
15.680	-0.017032	0.59344
15.720	-0.016528	2.4889
15.760	-0.015997	0.88829
15.800	-0.016528	-3.2817
15.840	-0.015493	2.4889
15.880	-0.014963	-0.71232
15.920	-0.014459	2.1940
15.960	-0.014459	1.2253
16.000	-0.013424	3.4577
16.040	-0.012416	1.2253
16.080	-0.012416	3.1628
16.120	-0.011885	-1.3441
16.160	-0.011885	2.4889
16.200	-0.011381	-1.9760
16.240	-0.010346	0.25647
16.280	-0.0098424	0.88829
16.320	-0.0098424	3.1628
16.360	-0.0088078	1.5622
16.400	-0.0098424	-0.71232
16.440	-0.0088078	-0.080498
16.480	-0.0083037	2.8259
16.520	-0.0072691	0.88829
16.560	-0.0067385	0.59344
16.600	-0.0051998	3.7947
16.640	-0.0062344	-0.080498
16.680	-0.0041916	1.2253
16.720	-0.0046957	1.8571
16.760	-0.0031570	1.2253
16.800	-0.0031570	0.88829
16.840	-0.0031570	1.8571
16.880	-0.0026264	0.25647
16.920	-0.0021224	2.1940
16.960	-0.0021224	-0.71232
17.000	-0.0010877	2.4889
17.040	-7.9588e-05	0.88829
17.080	0.00095506	3.1628
17.120	0.0019897	0.88829
17.160	0.0019897	2.4889
17.200	0.0019897	1.2253
17.240	0.0035284	0.59344
17.280	0.0035284	7.3328
17.320	0.0050671	0.88829
17.360	0.0061018	2.4889
17.400	0.0055977	2.8259
17.440	0.0061018	2.8259
17.480	0.0061018	0.88829
17.520	0.0071364	4.4265
17.560	0.0081711	-0.37535
17.600	0.0097098	3.7947
17.640	0.0097098	1.5622
17.680	0.0097098	3.7947
17.720	0.010718	5.0583
17.760	0.012787	0.59344
17.800	0.012283	2.4889
17.840	0.012787	0.88829
17.880	0.013822	4.1316
17.920	0.014326	2.4889
17.960	0.014326	0.59344
18.000	0.015361	6.9959
18.040	0.015865	-0.37535
18.080	0.014830	4.1316
18.120	0.016395	3.1628
18.160	0.016899	3.1628
18.200	0.016899	4.1316
18.240	0.017934	1.5622
18.280	0.018438	3.4577
18.320	0.019977	1.2253
18.360	0.018969	2.1940
18.400	0.019473	3.4577
18.440	0.021515	5.0583
18.480	0.021011	3.4577
18.520	0.018438	1.5622
18.560	0.020507	0.59344
18.600	0.022046	3.1628
18.640	0.022046	1.5622
18.680	0.022550	2.8259
18.720	0.023081	3.7947
18.760	0.023081	5.3953
18.800	0.024619	4.4265
18.840	0.024089	0.25647
18.880	0.025123	1.8571
18.920	0.025627	3.7947
18.960	0.026662	0.25647
19.000	0.026662	3.4577
19.040	0.026158	6.7010
19.080	0.026662	2.4889
19.120	0.028731	4.1316
19.160	0.028731	1.5622
19.200	0.028201	4.1316
19.240	0.028731	1.2253
19.280	0.029739	2.8259
19.320	0.030270	4.4265
19.360	0.030774	5.3953
19.400	0.030774	4.4265
19.440	0.030774	3.1628
19.480	0.030774	4.4265
19.520	0.031809	3.1628
19.560	0.032843	4.4265
19.600	0.032843	4.7634
19.640	0.033347	4.7634
19.680	0.033852	3.7947
19.720	0.036425	2.1940
19.760	0.035417	3.1628
19.800	0.036425	6.9959
19.840	0.036425	5.3953
19.880	0.036425	5.3953
19.920	0.037460	6.3640
19.960	0.037990	4.7634
20.000	0.037990	7.6277
20.040	0.038998	6.0271
20.080	0.041068	5.3953
20.120	0.041068	6.3640
20.160	0.041068	6.9959
20.200	0.042606	6.0271
20.240	0.043641	8.9334
20.280	0.044145	5.7322
20.330	0.043110	6.0271
20.360	0.044145	9.2704
20.400	0.045684	6.3640
20.440	0.047222	9.5653
20.480	0.047222	6.3640
20.520	0.046718	9.9022
20.560	0.047753	6.3640
20.600	0.048761	6.0271
20.640	0.048761	9.2704
20.680	0.051334	7.9647
20.720	0.050830	9.2704
20.760	0.051334	7.9647
20.800	0.050326	8.9334
20.840	0.051865	10.239
20.880	0.053404	7.3328
20.930	0.053908	7.9647
20.960	0.053908	7.9647
21.000	0.055446	9.2704
21.040	0.053908	10.239
21.080	0.055446	7.3328
21.120	0.055977	9.2704
21.160	0.056481	8.5965
21.200	0.057012	10.239
21.240	0.057516	10.239
21.280	0.059054	8.5965
21.320	0.058550	8.9334
21.360	0.059054	8.9334
21.400	0.059559	9.2704
21.440	0.060593	11.166
21.480	0.060593	9.9022
21.520	0.060593	10.534
21.560	0.063167	10.239
21.600	0.062132	9.2704
21.640	0.062662	11.503
21.680	0.063167	9.5653
21.720	0.063671	11.840
21.760	0.063671	12.809
21.800	0.064201	14.072
21.840	0.064705	16.010
21.880	0.065236	11.503
21.920	0.065740	11.840
21.960	0.066244	13.103
22.000	0.066244	10.534
22.040	0.067279	15.378
22.080	0.066775	15.041
22.120	0.067783	15.673
22.160	0.067279	16.642
22.200	0.068817	14.704
22.240	0.069348	15.378
22.280	0.068313	14.409
22.320	0.070356	16.010
22.360	0.070356	18.242
22.400	0.071391	16.642
22.440	0.071391	18.579
22.480	0.071921	17.610
22.520	0.072425	17.273
22.560	0.072929	19.211
22.600	0.072929	17.610
22.640	0.073964	19.211
22.680	0.074999	19.211
22.720	0.075503	20.180
22.760	0.075503	18.242
22.800	0.075503	20.180
22.840	0.076033	20.517
22.880	0.077041	22.749
22.920	0.077572	22.412
22.960	0.079111	23.381
23.000	0.079615	21.486
23.040	0.079615	22.749
23.080	0.080649	22.117
23.120	0.080649	22.117
23.160	0.080649	26.624
23.200	0.081684	26.287
23.240	0.083727	26.919
23.280	0.083223	23.086
23.320	0.084257	25.950
23.360	0.085266	24.055
23.400	0.086300	26.287
23.440	0.085266	29.489
23.480	0.085796	30.163
23.520	0.087335	29.194
23.560	0.089378	31.089
23.600	0.090412	28.857
23.640	0.088874	30.163
23.680	0.089908	32.395
23.720	0.089908	29.489
23.760	0.091951	34.627
23.800	0.091951	33.364
23.840	0.091951	32.732
23.880	0.094020	35.301
23.920	0.093490	35.596
23.960	0.094524	35.933
24.000	0.094524	36.228
24.040	0.095055	37.534
24.080	0.097098	38.840
24.120	0.095559	36.902
24.160	0.097098	39.766
24.200	0.096594	41.072
24.240	0.097098	41.072
24.280	0.098636	40.735
24.320	0.098636	45.242
24.360	0.098636	43.978
24.400	0.10071	43.304
24.440	0.099167	46.548
24.480	0.10018	47.811
24.520	0.10071	48.443
24.560	0.10071	50.381
24.600	0.10224	51.013
24.640	0.10224	51.350
24.680	0.10275	51.981
24.720	0.10171	51.013
24.760	0.10328	53.919
24.800	0.10429	53.582
24.840	0.10429	58.089
24.880	0.10532	54.551
24.920	0.10482	57.457
24.960	0.10636	60.658
25.000	0.10739	58.089
25.040	0.10636	62.596
25.080	0.10790	62.933
25.120	0.10790	62.596
25.160	0.10739	66.471
25.200	0.10943	64.533
25.240	0.10790	65.502
25.280	0.10840	68.703
25.320	0.10996	68.366
25.360	0.10996	70.009
25.400	0.10996	71.273
25.440	0.11097	71.610
25.480	0.11201	74.811
25.520	0.11150	72.579
25.560	0.11251	77.380
25.600	0.11304	76.749
25.640	0.11408	77.043
25.680	0.11355	82.856
25.720	0.11458	79.950
25.760	0.11458	82.182
25.800	0.11508	83.488
25.840	0.11715	84.457
25.880	0.11612	88.964
25.920	0.11715	91.196
25.960	0.11715	88.964
26.000	0.11869	91.828
26.040	0.11819	89.933
26.080	0.12127	94.103
26.120	0.12023	95.703
26.160	0.12177	95.366
26.200	0.12230	98.610
26.240	0.12280	102.78
26.280	0.12280	102.44
26.320	0.12384	103.41
26.360	0.12434	106.95
26.400	0.12538	106.61
26.440	0.12538	107.92
26.480	0.12588	112.43
26.520	0.12795	116.60
26.560	0.12899	117.56
26.600	0.12742	118.83
26.640	0.12999	117.86
26.680	0.12949	121.40
26.720	0.12999	124.30
26.760	0.13103	126.54
26.800	0.13206	128.14
26.840	0.13257	131.04
26.880	0.13310	133.61
26.920	0.13310	133.95
26.960	0.13411	136.18
27.000	0.13464	137.49
27.040	0.13464	141.03
27.080	0.13618	143.89
27.120	0.13668	144.56
27.160	0.13668	147.13
27.200	0.13668	148.73
27.240	0.13721	154.17
27.280	0.13875	157.07
27.320	0.13925	155.14
27.360	0.13976	159.01
27.400	0.13925	163.81
27.440	0.13976	163.81
27.480	0.13976	166.72
27.520	0.14029	171.52
27.560	0.14132	172.49
27.600	0.14233	176.37
27.640	0.14233	176.37
27.680	0.14233	181.17
27.720	0.14183	180.20
27.760	0.14286	184.41
27.800	0.14286	187.61
27.840	0.14390	190.52
27.880	0.14490	194.06
27.920	0.14543	197.26
27.960	0.14543	198.86
28.000	0.14490	200.80
28.040	0.14543	202.73
28.080	0.14697	205.93
28.120	0.14697	206.90
28.160	0.14748	214.61
28.200	0.14955	215.87
28.240	0.14902	219.41
28.280	0.15005	222.32
28.320	0.14902	222.95
28.360	0.14955	228.09
28.400	0.15005	231.63
28.440	0.15005	234.53
28.480	0.15212	235.50
28.520	0.15262	239.67
28.560	0.15212	242.87
28.600	0.15212	247.38
28.640	0.15262	249.61
28.680	0.15366	255.09
28.720	0.15416	257.66
28.760	0.15623	261.20
28.800	0.15623	263.77
28.840	0.15570	266.67
28.880	0.15674	269.87
28.920	0.15724	275.64
28.960	0.15881	279.18
29.000	0.15827	283.69
29.040	0.15881	285.29
29.080	0.15981	286.60
29.120	0.16034	292.37
29.160	0.16085	295.57
29.200	0.16188	302.64
29.240	0.16292	305.21
29.280	0.16342	309.09
29.320	0.16342	311.66
29.360	0.16446	314.86
29.400	0.16446	316.80
29.440	0.16496	320.97
29.480	0.16599	325.14
29.520	0.16753	330.28
29.560	0.16857	334.78
29.600	0.16857	342.83
29.640	0.16857	346.03
29.680	0.17011	348.30
29.720	0.17061	349.90
29.760	0.17114	355.68
29.800	0.17165	360.18
29.840	0.17114	364.98
29.880	0.17318	368.52
29.920	0.17369	373.37
29.960	0.17422	376.57
30.000	0.17422	379.77
30.040	0.17369	385.58
30.080	0.17472	389.75
30.120	0.17626	393.29
30.160	0.17626	397.46
30.200	0.17525	404.20
30.240	0.17730	408.07
30.280	0.17783	410.94
30.320	0.17833	415.78
30.360	0.17833	421.55
30.400	0.17783	423.83
30.440	0.17883	428.63
30.480	0.17987	433.14
30.520	0.17987	439.88
30.560	0.17833	443.41
30.600	0.18090	446.95
30.640	0.18141	451.46
30.680	0.18141	460.14
30.720	0.18244	461.74
30.760	0.18244	466.54
30.800	0.18295	471.68
30.840	0.18348	476.82
30.880	0.18449	481.32
30.920	0.18502	486.17
30.960	0.18502	493.20
31.000	0.18552	497.41
31.040	0.18759	502.21
31.080	0.18655	507.69
31.120	0.18655	513.80
31.160	0.18759	516.66
31.200	0.18706	517.63
31.240	0.18655	515.40
31.280	0.18759	509.92
31.320	0.18706	504.49
31.360	0.18655	499.31
31.400	0.18605	497.71
31.440	0.18706	495.81
31.480	0.18655	495.14
31.520	0.18605	493.20
31.560	0.18706	490.34
31.600	0.18655	489.37
31.640	0.18706	489.03
31.680	0.18706	488.40
31.720	0.18706	488.74
31.760	0.18963	485.20
31.800	0.18655	486.46
31.840	0.18655	485.20
31.880	0.18759	480.35
31.920	0.18706	480.35
31.960	0.18809	478.46
32.000	0.18706	478.46
32.040	0.18706	478.46
32.080	0.18706	477.49
32.120	0.18809	475.55
32.160	0.18913	474.58
32.200	0.18706	470.08
32.240	0.18809	472.35
32.280	0.18809	472.65
32.320	0.18860	471.68
32.360	0.18655	468.81
32.400	0.18913	468.48
32.440	0.18860	468.81
